File: data_example/1_solartron_output/V429_w43.csv
Exported SMaRT Impedance Data
Experiment start time : 3/7/2011 1:16:29 PM

Result Number,Sweep Number,Point Number,Time,Frequency (Hz),AC Level (V),DC Level (V),Temperature (K),Impedance Magnitude (Ohms),Impedance Phase Degrees ('),Impedance Real (Ohms),Impedance Imaginary (Ohms)
1,1,1,00:00:08,10000000,3,0,-,4495.226,-99.81781,-766.5083,-4429.393,
6,1,6,00:00:28,3831187,3,0,-,24299.27,-87.10312,1228.059,-24268.21,
11,1,11,00:00:44,1467799,3,0,-,88004.24,-90.29721,-456.5487,-88003.05,
16,1,16,00:01:02,562341.3,3,0,-,239526.9,-85.80431,17524.64,-238885,
21,1,21,00:01:18,215443.5,3,0,-,613982.6,-80.34462,102978.4,-605285.1,
26,1,26,00:01:34,82540.42,3,0,-,1488428,-66.80056,586340.9,-1368072,
31,1,31,00:01:53,31622.78,3,0,-,2827811,-42.296,2091670,-1903006,
36,1,36,00:02:10,12115.28,3,0,-,3497431,-20.82646,3268915,-1243472,
41,1,41,00:02:26,4641.589,3,0,-,3555027,-18.56965,3369943,-1132124,
46,1,46,00:02:43,1778.279,3,0,-,4218467,-34.00414,3497097,-2359189,
51,1,51,00:03:00,681.2921,3,0,-,7036667,-49.33514,4585328,-5337551,
56,1,56,00:03:19,261.0157,3,0,-,1.280966E+07,-54.62971,7414983,-1.044536E+07,
61,1,61,00:03:36,100,3,0,-,2.284771E+07,-61.8388,1.078307E+07,-2.014307E+07,
66,2,5,00:03:58,21.54435,3,0,-,7.912642E+07,-75.81488,1.939038E+07,-7.671377E+07,
71,2,10,00:04:31,3.162278,3,0,-,4.409871E+08,-70.05258,1.504462E+08,-4.145305E+08,
76,3,2,00:06:19,0.4641589,3,0,-,1.517072E+09,-42.24074,1.123129E+09,-1.019847E+09,
81,4,3,00:09:00,6812921,3,0,-,10506.82,-84.64542,980.4901,-10460.97,
86,4,8,00:09:19,2610157,3,0,-,46718.29,-89.09484,738.0408,-46712.46,
91,4,13,00:09:36,1000000,3,0,-,134490.6,-87.44957,5984.69,-134357.4,
96,4,18,00:09:53,383118.7,3,0,-,349238.5,-84.02739,36339.42,-347342.8,
101,4,23,00:10:09,146779.9,3,0,-,886620.8,-75.65533,219664.6,-858978.4,
106,4,28,00:10:28,56234.13,3,0,-,1995054,-57.27687,1078486,-1678424,
111,4,33,00:10:44,21544.35,3,0,-,3150874,-31.30137,2692253,-1637003,
116,4,38,00:11:02,8254.041,3,0,-,3425070,-17.13321,3273073,-1009006,
121,4,43,00:11:18,3162.278,3,0,-,3583142,-23.6634,3281869,-1438140,
126,4,48,00:11:35,1211.528,3,0,-,4921753,-41.43663,3689780,-3257173,
131,4,53,00:11:53,464.1589,3,0,-,8829336,-51.97725,5438646,-6955452,
136,4,58,00:12:11,177.8279,3,0,-,1.565177E+07,-56.81817,8566180,-1.309955E+07,
141,5,2,00:12:32,68.1292,3,0,-,2.94469E+07,-66.53298,1.172638E+07,-2.701133E+07,
146,5,7,00:12:53,10,3,0,-,1.576884E+08,-75.8644,3.851032E+07,-1.529136E+08,
151,5,12,00:13:46,1.467799,3,0,-,7.576503E+08,-57.88316,4.02803E+08,-6.417037E+08,
156,6,4,00:17:46,0.1,3,0,-,1.684671E+09,-24.13044,1.537459E+09,-6.887191E+08,
161,7,5,00:18:13,4641589,3,0,-,18214.96,-87.07626,929.0909,-18191.25,
166,7,10,00:18:29,1778280,3,0,-,71350.1,-90.24179,-301.111,-71349.47,
171,7,15,00:18:45,681292.1,3,0,-,197770.6,-86.25434,12919.94,-197348.1,
176,7,20,00:19:03,261015.7,3,0,-,508735.4,-81.53975,74846.95,-503199.4,
181,7,25,00:19:19,100000,3,0,-,1253275,-69.5321,438248.8,-1174154,
186,7,30,00:19:38,38311.87,3,0,-,2514187,-46.46825,1731663,-1822767,
191,7,35,00:19:54,14677.99,3,0,-,3305939,-23.00912,3042928,-1292217,
196,7,40,00:20:11,5623.413,3,0,-,3385185,-17.35066,3231151,-1009526,
201,7,45,00:20:28,2154.435,3,0,-,3831212,-30.73744,3292998,-1958150,
206,7,50,00:20:45,825.4042,3,0,-,6086112,-47.22562,4133159,-4467410,
211,7,55,00:21:03,316.2278,3,0,-,1.10506E+07,-53.6454,6550585,-8899750,
216,7,60,00:21:21,121.1528,3,0,-,1.956734E+07,-60.26569,9704989,-1.6991E+07,
221,8,4,00:21:43,31.62278,3,0,-,5.522989E+07,-73.62677,1.556895E+07,-5.299008E+07,
226,8,9,00:22:11,4.641589,3,0,-,3.080054E+08,-71.12991,9.961624E+07,-2.914514E+08,
231,9,1,00:23:36,1,3,0,-,9.358308E+08,-50.8632,5.906723E+08,-7.258688E+08,
236,10,2,00:27:04,8254042,3,0,-,4449.006,-69.41603,1564.181,-4164.972,
241,10,7,00:27:24,3162278,3,0,-,31895.13,-87.04579,1643.815,-31852.75,
246,10,12,00:27:40,1211528,3,0,-,110666.8,-87.74333,4357.663,-110580.9,
251,10,17,00:27:58,464158.9,3,0,-,289177.5,-84.77866,26316.28,-287977.6,
256,10,22,00:28:14,177828,3,0,-,736757.5,-77.91285,154276.7,-720423.7,
261,10,27,00:28:30,68129.21,3,0,-,1717429,-61.47575,820125.6,-1508959,
266,10,32,00:28:49,26101.57,3,0,-,2947973,-35.68362,2394492,-1719579,
271,10,37,00:29:06,10000,3,0,-,3355591,-18.0158,3191071,-1037815,
276,10,42,00:29:22,3831.187,3,0,-,3424583,-20.95445,3198099,-1224718,
281,10,47,00:29:39,1467.799,3,0,-,4428104,-38.21143,3479310,-2739070,
286,10,52,00:29:57,562.3413,3,0,-,7716831,-50.8722,4869725,-5986256,
291,10,57,00:30:15,215.4435,3,0,-,1.376426E+07,-55.58218,7779885,-1.135466E+07,
296,11,1,00:30:34,100,3,0,-,2.20943E+07,-62.36889,1.024684E+07,-1.957448E+07,
301,11,6,00:30:56,14.67799,3,0,-,1.101404E+08,-75.9215,2.67918E+07,-1.068322E+08,
306,11,11,00:31:40,2.154435,3,0,-,5.622005E+08,-62.08373,2.632116E+08,-4.967787E+08,
311,12,3,00:34:12,0.2154435,3,0,-,1.7533E+09,-32.79765,1.473805E+09,-9.497166E+08,
316,13,4,00:35:58,5623413,3,0,-,13721.74,-85.49921,1076.788,-13679.43,
321,13,9,00:36:15,2154435,3,0,-,57760.53,-89.89976,101.0773,-57760.44,
326,13,14,00:36:31,825404.2,3,0,-,163286.6,-86.82734,9037.176,-163036.3,
331,13,19,00:36:49,316227.8,3,0,-,421156.8,-82.75627,53103.98,-417795.5,
336,13,24,00:37:05,121152.8,3,0,-,1056167,-72.60906,315677.9,-1007887,
341,13,29,00:37:24,46415.89,3,0,-,2243688,-51.60323,1393563,-1758442,
346,13,34,00:37:40,17782.79,3,0,-,3211084,-26.48667,2874043,-1432110,
351,13,39,00:37:57,6812.92,3,0,-,3358753,-16.713,3216870,-965902.4,
356,13,44,00:38:14,2610.157,3,0,-,3643439,-27.17806,3241172,-1664167,
361,13,49,00:38:31,1000,3,0,-,5403535,-44.61703,3846330,-3795252,
366,13,54,00:38:49,383.1187,3,0,-,9782291,-52.75959,5919860,-7787714,
371,13,59,00:39:07,146.7799,3,0,-,1.7244E+07,-58.47009,9017646,-1.469822E+07,
376,14,3,00:39:28,46.41589,3,0,-,3.949297E+07,-70.7175,1.304162E+07,-3.727748E+07,
381,14,8,00:39:54,6.812921,3,0,-,2.194069E+08,-73.6338,6.182352E+07,-2.105166E+08,
386,14,13,00:41:08,1,3,0,-,9.230575E+08,-50.49937,5.871448E+08,-7.122472E+08,
391,16,1,00:44:30,10000000,3,0,-,4495.888,-99.60236,-749.9565,-4432.897,
396,16,6,00:44:50,3831187,3,0,-,24296.57,-87.02103,1262.687,-24263.74,
401,16,11,00:45:07,1467799,3,0,-,87899.04,-90.12762,-195.7939,-87898.82,
406,16,16,00:45:25,562341.3,3,0,-,239266.5,-85.52032,18688.1,-238535.6,
411,16,21,00:45:41,215443.5,3,0,-,612765.8,-79.83051,108190.4,-603139.1,
416,16,26,00:45:57,82540.42,3,0,-,1473413,-65.63818,607779.6,-1342218,
421,16,31,00:46:16,31622.78,3,0,-,2740407,-40.7611,2075690,-1789229,
426,16,36,00:46:33,12115.28,3,0,-,3322783,-20.13021,3119804,-1143552,
431,16,41,00:46:49,4641.589,3,0,-,3379114,-18.80958,3198654,-1089507,
436,16,46,00:47:06,1778.279,3,0,-,4067043,-34.52948,3350571,-2305322,
441,16,51,00:47:24,681.2921,3,0,-,6814577,-49.13474,4458659,-5153525,
446,16,56,00:47:42,261.0157,3,0,-,1.226578E+07,-54.47458,7127205,-9982596,
451,16,61,00:48:00,100,3,0,-,2.201436E+07,-62.39293,1.020158E+07,-1.950794E+07,
456,17,5,00:48:21,21.54435,3,0,-,7.746966E+07,-75.38054,1.955321E+07,-7.496146E+07,
461,17,10,00:48:54,3.162278,3,0,-,4.187427E+08,-66.94125,1.64011E+08,-3.852867E+08,
466,18,2,00:50:42,0.4641589,3,0,-,1.319767E+09,-39.79062,1.014094E+09,-8.446298E+08,
471,19,3,00:53:42,6812921,3,0,-,10482.1,-84.71774,965.0105,-10437.59,
476,19,8,00:54:01,2610157,3,0,-,46682.61,-89.04381,779.0504,-46676.11,
481,19,13,00:54:17,1000000,3,0,-,134654.1,-87.37944,6156.624,-134513.3,
486,19,18,00:54:35,383118.7,3,0,-,349272.3,-83.66291,38551.98,-347138.2,
491,19,23,00:54:51,146779.9,3,0,-,882869.4,-74.85619,230643.4,-852210.1,
496,19,28,00:55:10,56234.13,3,0,-,1953404,-55.69556,1100920,-1613618,
501,19,33,00:55:26,21544.35,3,0,-,2995516,-29.71455,2601623,-1484815,
506,19,38,00:55:43,8254.041,3,0,-,3213673,-16.70926,3077979,-923979.9,
511,19,43,00:56:00,3162.278,3,0,-,3372170,-24.15821,3076832,-1380086,
516,19,48,00:56:17,1211.528,3,0,-,4725206,-41.96406,3513495,-3159576,
521,19,53,00:56:34,464.1589,3,0,-,8402827,-51.61109,5218124,-6586250,
526,19,58,00:56:53,177.8279,3,0,-,1.475604E+07,-57.21564,7990087,-1.240562E+07,
531,20,2,00:57:13,68.1292,3,0,-,2.830941E+07,-67.35542,1.089951E+07,-2.612707E+07,
536,20,7,00:57:34,10,3,0,-,1.518586E+08,-73.93239,4.203018E+07,-1.459264E+08,
541,20,12,00:58:30,1.467799,3,0,-,6.60887E+08,-52.78192,3.997379E+08,-5.2629E+08,
546,21,4,01:02:24,0.1,3,0,-,1.910622E+09,-30.18187,1.651607E+09,-9.605583E+08,
551,22,5,01:02:50,4641589,3,0,-,18192.8,-87.01974,945.8848,-18168.2,
556,22,10,01:03:06,1778280,3,0,-,71308.48,-90.08719,-108.5123,-71308.4,
561,22,15,01:03:23,681292.1,3,0,-,197559.2,-86.00331,13769.71,-197078.8,
566,22,20,01:03:40,261015.7,3,0,-,507390.4,-80.85152,80671.86,-500936.2,
571,22,25,01:03:57,100000,3,0,-,1239504,-67.97948,464738,-1149082,
576,22,30,01:04:15,38311.87,3,0,-,2407655,-44.16511,1727096,-1677482,
580,22,34,01:04:29,17782.79,3,0,-,3018044,-24.94096,2736590,-1272661,