File: data_example/1_solartron_output/V429_f85.csv
Exported SMaRT Impedance Data
Experiment start time : 3/6/2011 8:36:09 PM

Result Number,Sweep Number,Point Number,Time,Frequency (Hz),AC Level (V),DC Level (V),Temperature (K),Impedance Magnitude (Ohms),Impedance Phase Degrees ('),Impedance Real (Ohms),Impedance Imaginary (Ohms)
1,1,1,00:00:08,10000000,3,0,-,6608.88,-83.87502,705.1544,-6571.153,
6,1,6,00:00:27,3831187,3,0,-,24255.61,-85.63073,1847.905,-24185.12,
11,1,11,00:00:44,1467799,3,0,-,87833.15,-90.80173,-1229.029,-87824.55,
16,1,16,00:01:01,562341.3,3,0,-,241270,-89.10387,3773.478,-241240.5,
21,1,21,00:01:17,215443.5,3,0,-,630108.8,-88.98257,11188.72,-630009.4,
26,1,26,00:01:33,82540.42,3,0,-,1645280,-87.6032,68805.82,-1643840,
31,1,31,00:01:52,31622.78,3,0,-,4272741,-84.31107,423547,-4251696,
36,1,36,00:02:08,12115.28,3,0,-,1.0849E+07,-75.54687,2707783,-1.050565E+07,
41,1,41,00:02:24,4641.589,3,0,-,2.422162E+07,-56.46272,1.338195E+07,-2.018936E+07,
46,1,46,00:02:41,1778.279,3,0,-,3.731047E+07,-31.14993,3.193093E+07,-1.929993E+07,
51,1,51,00:02:58,681.2921,3,0,-,4.048437E+07,-18.93015,3.829476E+07,-1.313375E+07,
56,1,56,00:03:17,261.0157,3,0,-,4.334078E+07,-28.07711,3.824022E+07,-2.039874E+07,
61,1,61,00:03:35,100,3,0,-,6.291444E+07,-49.70833,4.068544E+07,-4.798876E+07,
66,2,5,00:03:56,21.54435,3,0,-,2.116338E+08,-68.12105,7.886471E+07,-1.963904E+08,
71,2,10,00:04:33,3.162278,3,0,-,8.536335E+08,-70.47173,2.85346E+08,-8.045295E+08,
76,3,2,00:06:13,0.4641589,3,0,-,4.652035E+09,-85.97388,3.266264E+08,-4.640554E+09,
81,4,3,00:08:54,6812921,3,0,-,5456.829,-72.55825,1635.61,-5205.936,
86,4,8,00:09:13,2610157,3,0,-,46524.34,-88.32742,1357.964,-46504.51,
91,4,13,00:09:29,1000000,3,0,-,134844.5,-89.0122,2324.695,-134824.5,
96,4,18,00:09:46,383118.7,3,0,-,354376,-89.1181,5454.465,-354334,
101,4,23,00:10:03,146779.9,3,0,-,927851.3,-88.41703,25631.8,-927497.2,
106,4,28,00:10:21,56234.13,3,0,-,2412453,-86.57625,144072.8,-2408147,
111,4,33,00:10:37,21544.35,3,0,-,6234211,-81.53606,917595.6,-6166312,
116,4,38,00:10:53,8254.041,3,0,-,1.531949E+07,-68.97929,5495188,-1.429999E+07,
121,4,43,00:11:10,3162.278,3,0,-,3.006516E+07,-45.38542,2.111579E+07,-2.14018E+07,
126,4,48,00:11:27,1211.528,3,0,-,3.870401E+07,-23.52109,3.548822E+07,-1.544625E+07,
131,4,53,00:11:45,464.1589,3,0,-,3.98927E+07,-20.22019,3.743417E+07,-1.378807E+07,
136,4,58,00:12:05,177.8279,3,0,-,4.693083E+07,-36.78999,3.75839E+07,-2.810611E+07,
141,5,2,00:12:26,68.1292,3,0,-,8.088429E+07,-57.88876,4.299526E+07,-6.851041E+07,
146,5,7,00:12:49,10,3,0,-,3.807206E+08,-66.40874,1.52368E+08,-3.489014E+08,
151,5,12,00:13:47,1.467799,3,0,-,1.589951E+09,-78.24959,3.237921E+08,-1.556632E+09,
156,6,4,00:17:18,0.1,3,0,-,2.168761E+10,-80.51174,3.575112E+09,-2.139091E+10,
161,7,5,00:17:45,4641589,3,0,-,18187.31,-85.43974,1446.036,-18129.74,
166,7,10,00:18:01,1778280,3,0,-,71151.4,-90.39792,-494.1641,-71149.68,
171,7,15,00:18:17,681292.1,3,0,-,199021.2,-89.07815,3202.039,-198995.4,
176,7,20,00:18:35,261015.7,3,0,-,520314.5,-89.05798,8554.482,-520244.2,
181,7,25,00:18:51,100000,3,0,-,1358461,-87.89733,49842.68,-1357547,
186,7,30,00:19:09,38311.87,3,0,-,3533084,-85.12516,300240.3,-3520303,
191,7,35,00:19:25,14677.99,3,0,-,9056155,-77.65172,1936694,-8846647,
196,7,40,00:19:42,5623.413,3,0,-,2.089115E+07,-60.58149,1.026143E+07,-1.819734E+07,
201,7,45,00:19:58,2154.435,3,0,-,3.475513E+07,-35.09722,2.843587E+07,-1.9983E+07,
206,7,50,00:20:16,825.4042,3,0,-,3.928255E+07,-19.46049,3.70384E+07,-1.308724E+07,
211,7,55,00:20:33,316.2278,3,0,-,4.100997E+07,-25.04263,3.715475E+07,-1.735921E+07,
216,7,60,00:20:52,121.1528,3,0,-,5.567584E+07,-45.90216,3.874402E+07,-3.998374E+07,
221,8,4,00:21:13,31.62278,3,0,-,1.51626E+08,-66.89527,5.950004E+07,-1.394639E+08,
226,8,9,00:21:41,4.641589,3,0,-,6.382914E+08,-67.74483,2.417416E+08,-5.907427E+08,
231,9,1,00:23:01,1,3,0,-,2.26035E+09,-81.32515,3.409221E+08,-2.234492E+09,
236,10,2,00:26:29,8254042,3,0,-,4486.732,-67.16181,1741.436,-4134.993,
241,10,7,00:26:48,3162278,3,0,-,31797.98,-85.9571,2241.874,-31718.85,
246,10,12,00:27:04,1211528,3,0,-,110653.1,-88.81319,2291.911,-110629.4,
251,10,17,00:27:23,464158.9,3,0,-,292293.1,-89.14359,4368.923,-292260.4,
256,10,22,00:27:38,177828,3,0,-,763367.7,-88.77771,16283.87,-763194,
261,10,27,00:27:55,68129.21,3,0,-,1993567,-87.0852,101375.6,-1990988,
266,10,32,00:28:13,26101.57,3,0,-,5164412,-82.96222,632764.9,-5125501,
271,10,37,00:28:29,10000,3,0,-,1.292909E+07,-72.2883,3933389,-1.231624E+07,
276,10,42,00:28:46,3831.187,3,0,-,2.707162E+07,-50.61613,1.71773E+07,-2.092399E+07,
281,10,47,00:29:03,1467.799,3,0,-,3.77791E+07,-26.7103,3.374771E+07,-1.698093E+07,
286,10,52,00:29:20,562.3413,3,0,-,3.951724E+07,-19.09133,3.734373E+07,-1.292509E+07,
291,10,57,00:29:39,215.4435,3,0,-,4.439233E+07,-32.51316,3.743464E+07,-2.386058E+07,
296,11,1,00:29:59,100,3,0,-,6.224958E+07,-50.20733,3.984045E+07,-4.783042E+07,
301,11,6,00:30:21,14.67799,3,0,-,2.865423E+08,-67.38805,1.101721E+08,-2.645158E+08,
306,11,11,00:31:04,2.154435,3,0,-,1.143958E+09,-74.55183,3.047122E+08,-1.102628E+09,
311,12,3,00:33:51,0.2154435,3,0,-,9.830665E+09,-87.52559,4.244247E+08,-9.821499E+09,
316,13,4,00:35:37,5623413,3,0,-,13742.3,-83.64545,1521.008,-13657.87,
321,13,9,00:35:53,2154435,3,0,-,57586.28,-89.58479,417.3288,-57584.77,
326,13,14,00:36:10,825404.2,3,0,-,163797.1,-89.01411,2818.353,-163772.9,
331,13,19,00:36:27,316227.8,3,0,-,429476.8,-89.0367,7220.479,-429416.1,
336,13,24,00:36:43,121152.8,3,0,-,1145676,-87.60868,47802.84,-1144678,
341,13,29,00:37:02,46415.89,3,0,-,2922495,-85.91001,208442.6,-2915052,
346,13,34,00:37:18,17782.79,3,0,-,7506651,-79.75028,1335726,-7386856,
351,13,39,00:37:34,6812.92,3,0,-,1.797547E+07,-64.9985,7597192,-1.62911E+07,
356,13,44,00:37:51,2610.157,3,0,-,3.263873E+07,-40.08217,2.497261E+07,-2.10156E+07,
361,13,49,00:38:08,1000,3,0,-,3.909512E+07,-21.0431,3.648789E+07,-1.403789E+07,
366,13,54,00:38:26,383.1187,3,0,-,4.02348E+07,-22.23782,3.724218E+07,-1.522693E+07,
371,13,59,00:38:45,146.7799,3,0,-,5.067774E+07,-41.34333,3.804707E+07,-3.347617E+07,
376,14,3,00:39:06,46.41589,3,0,-,1.095457E+08,-63.57213,4.875561E+07,-9.809762E+07,
381,14,8,00:39:31,6.812921,3,0,-,4.937188E+08,-66.24256,1.989024E+08,-4.518806E+08,
386,14,13,00:40:42,1,3,0,-,2.263231E+09,-81.37218,3.395202E+08,-2.237619E+09,
391,16,1,00:44:04,10000000,3,0,-,6626.837,-83.72694,724.0967,-6587.159,
396,16,6,00:44:23,3831187,3,0,-,24239,-85.5183,1894.058,-24164.88,
401,16,11,00:44:39,1467799,3,0,-,87779.56,-90.78247,-1198.763,-87771.38,
406,16,16,00:44:57,562341.3,3,0,-,241166.9,-89.10864,3751.811,-241137.7,
411,16,21,00:45:13,215443.5,3,0,-,630021.4,-88.91965,11878.9,-629909.4,
416,16,26,00:45:29,82540.42,3,0,-,1644725,-87.53654,70694.55,-1643205,
421,16,31,00:45:48,31622.78,3,0,-,4270321,-84.11765,437649.7,-4247835,
426,16,36,00:46:04,12115.28,3,0,-,1.081533E+07,-75.07048,2786364,-1.045024E+07,
431,16,41,00:46:20,4641.589,3,0,-,2.395433E+07,-55.4868,1.357243E+07,-1.973826E+07,
436,16,46,00:46:37,1778.279,3,0,-,3.620011E+07,-30.27625,3.126258E+07,-1.8251E+07,
441,16,51,00:46:55,681.2921,3,0,-,3.881192E+07,-18.80161,3.674092E+07,-1.250878E+07,
446,16,56,00:47:14,261.0157,3,0,-,4.1704E+07,-28.76604,3.65574E+07,-2.006939E+07,
451,16,61,00:47:31,100,3,0,-,6.145396E+07,-50.54163,3.905507E+07,-4.744777E+07,
456,17,5,00:47:53,21.54435,3,0,-,2.074243E+08,-67.60214,7.903611E+07,-1.917762E+08,
461,17,10,00:48:30,3.162278,3,0,-,8.150666E+08,-70.85278,2.673392E+08,-7.699761E+08,
466,18,2,00:50:24,0.4641589,3,0,-,4.532967E+09,-86.07099,3.106022E+08,-4.522313E+09,
471,19,3,00:53:23,6812921,3,0,-,5453.536,-72.42367,1646.839,-5198.939,
476,19,8,00:53:42,2610157,3,0,-,46532.68,-88.31641,1367.145,-46512.59,
481,19,13,00:53:58,1000000,3,0,-,134787.9,-88.94252,2487.615,-134764.9,
486,19,18,00:54:16,383118.7,3,0,-,354321.1,-89.02216,6046.831,-354269.5,
491,19,23,00:54:32,146779.9,3,0,-,926830.1,-88.24293,28418.71,-926394.3,
496,19,28,00:54:50,56234.13,3,0,-,2404321,-86.21757,158609,-2399084,
501,19,33,00:55:06,21544.35,3,0,-,6212669,-80.57375,1017499,-6128780,
506,19,38,00:55:23,8254.041,3,0,-,1.50629E+07,-66.7842,5937729,-1.384321E+07,
511,19,43,00:55:39,3162.278,3,0,-,2.816389E+07,-42.36324,2.080996E+07,-1.897763E+07,
516,19,48,00:55:56,1211.528,3,0,-,3.485956E+07,-21.89576,3.234493E+07,-1.299979E+07,
521,19,53,00:56:14,464.1589,3,0,-,3.580998E+07,-21.21046,3.338414E+07,-1.295586E+07,
526,19,58,00:56:33,177.8279,3,0,-,4.36907E+07,-39.25722,3.383027E+07,-2.764759E+07,
531,20,2,00:56:54,68.1292,3,0,-,7.841239E+07,-59.49209,3.980664E+07,-6.75569E+07,
536,20,7,00:57:17,10,3,0,-,3.603417E+08,-65.67003,1.484576E+08,-3.283389E+08,
541,20,12,00:58:15,1.467799,3,0,-,1.5392E+09,-79.28338,2.862172E+08,-1.512355E+09,
546,21,4,01:02:05,0.1,3,0,-,2.278355E+10,-90.67953,-2.702126E+08,-2.278194E+10,
551,22,5,01:02:31,4641589,3,0,-,18189.54,-85.32529,1482.427,-18129.03,
556,22,10,01:02:47,1778280,3,0,-,71074.06,-90.35944,-445.8651,-71072.66,
561,22,15,01:03:04,681292.1,3,0,-,198795.7,-89.07488,3209.763,-198769.7,
566,22,20,01:03:25,261015.7,3,0,-,519321.9,-88.94133,9595.291,-519233.3,