File: data_example/1_solartron_output/V429_w40.csv
Exported SMaRT Impedance Data
Experiment start time : 3/7/2011 2:21:34 PM

Result Number,Sweep Number,Point Number,Time,Frequency (Hz),AC Level (V),DC Level (V),Temperature (K),Impedance Magnitude (Ohms),Impedance Phase Degrees ('),Impedance Real (Ohms),Impedance Imaginary (Ohms)
1,1,1,00:00:08,10000000,3,0,-,4493.348,-99.72052,-758.6697,-4428.836,
3,1,3,00:00:15,6812921,3,0,-,10486.95,-84.7844,953.3065,-10443.53,
5,1,5,00:00:24,4641589,3,0,-,18213.96,-87.15614,903.6794,-18191.53,
7,1,7,00:00:31,3162278,3,0,-,31901.82,-87.04913,1642.303,-31859.52,
9,1,9,00:00:37,2154435,3,0,-,57780.52,-89.91358,87.17272,-57780.46,
11,1,11,00:00:44,1467799,3,0,-,87847.25,-90.08813,-135.1432,-87847.15,
13,1,13,00:00:50,1000000,3,0,-,134606.8,-87.26288,6428.001,-134453.3,
15,1,15,00:00:57,681292.1,3,0,-,197717.4,-85.96945,13897.29,-197228.3,
17,1,17,00:01:05,464158.9,3,0,-,288821.3,-84.4319,28024.06,-287458.5,
19,1,19,00:01:11,316227.8,3,0,-,421180.6,-82.23989,56870.34,-417323.4,
21,1,21,00:01:18,215443.5,3,0,-,610396.2,-79.11521,115264.2,-599414.4,
23,1,23,00:01:24,146779.9,3,0,-,880125.4,-74.25634,238808.2,-847107.7,
25,1,25,00:01:31,100000,3,0,-,1238792,-67.90273,466009.3,-1147799,
27,1,27,00:01:37,68129.21,3,0,-,1685532,-59.49658,855559.3,-1452252,
29,1,29,00:01:46,46415.89,3,0,-,2173188,-49.42632,1413497,-1650688,
31,1,31,00:01:52,31622.78,3,0,-,2616646,-38.62172,2044344,-1633247,
33,1,33,00:01:59,21544.35,3,0,-,2906184,-28.80571,2546569,-1400318,
35,1,35,00:02:06,14677.99,3,0,-,3055975,-21.63351,2840716,-1126641,
37,1,37,00:02:13,10000,3,0,-,3089379,-17.24838,2950445,-916045.4,
39,1,39,00:02:19,6812.92,3,0,-,3104366,-16.62128,2974655,-887985.8,
41,1,41,00:02:26,4641.589,3,0,-,3131039,-19.22913,2956355,-1031197,
43,1,43,00:02:33,3162.278,3,0,-,3273059,-24.45198,2979493,-1354819,
45,1,45,00:02:39,2154.435,3,0,-,3584080,-31.60083,3052630,-1878051,
47,1,47,00:02:46,1467.799,3,0,-,4193404,-38.80543,3267830,-2627912,
49,1,49,00:02:53,1000,3,0,-,5147768,-44.75594,3655494,-3624482,
51,1,51,00:03:00,681.2921,3,0,-,6484122,-48.85978,4265931,-4883203,
53,1,53,00:03:07,464.1589,3,0,-,8194714,-51.38206,5114521,-6402735,
55,1,55,00:03:14,316.2278,3,0,-,1.027035E+07,-53.35735,6129574,-8240652,
57,1,57,00:03:23,215.4435,3,0,-,1.282247E+07,-55.83403,7200999,-1.060949E+07,
59,1,59,00:03:29,146.7799,3,0,-,1.616502E+07,-59.1966,8278010,-1.388461E+07,
61,1,61,00:03:36,100,3,0,-,2.087786E+07,-63.34274,9366909,-1.865867E+07,
63,2,2,00:03:46,68.1292,3,0,-,2.781979E+07,-67.51481,1.063954E+07,-2.570488E+07,
65,2,4,00:03:54,31.62278,3,0,-,5.319446E+07,-73.27473,1.530847E+07,-5.09441E+07,
67,2,6,00:04:03,14.67799,3,0,-,1.057002E+08,-74.03564,2.907175E+07,-1.016237E+08,
69,2,8,00:04:17,6.812921,3,0,-,2.062463E+08,-70.00952,7.050821E+07,-1.938198E+08,
71,2,10,00:04:33,3.162278,3,0,-,3.7698E+08,-61.48293,1.799781E+08,-3.312428E+08,
73,2,12,00:05:04,1.467799,3,0,-,6.140751E+08,-50.37158,3.916609E+08,-4.729587E+08,
75,3,1,00:05:41,1,3,0,-,7.487474E+08,-45.15184,5.280395E+08,-5.308455E+08,
77,3,3,00:06:54,0.2154435,3,0,-,1.324059E+09,-29.7393,1.149669E+09,-6.568051E+08,
82,4,1,00:46:18,10000000,3,0,-,4497.192,-99.6308,-752.3764,-4433.809,
84,4,3,00:46:25,6812921,3,0,-,10491.26,-84.77627,955.1802,-10447.69,
86,4,5,00:46:34,4641589,3,0,-,18191.88,-87.14841,905.0346,-18169.35,
88,4,7,00:46:41,3162278,3,0,-,31903.7,-87.01054,1663.863,-31860.28,
90,4,9,00:46:47,2154435,3,0,-,57736.65,-89.76283,239.0116,-57736.15,
92,4,11,00:46:54,1467799,3,0,-,87812.12,-90.10764,-165.0106,-87811.96,
94,4,13,00:47:00,1000000,3,0,-,134570.4,-87.08234,6849.798,-134396,
96,4,15,00:47:07,681292.1,3,0,-,197551.4,-85.92239,14047.51,-197051.4,
98,4,17,00:47:15,464158.9,3,0,-,288696.8,-84.31113,28617.55,-287274.9,
100,4,19,00:47:21,316227.8,3,0,-,420553.5,-82.07484,57985.82,-416536.8,
102,4,21,00:47:28,215443.5,3,0,-,609827.7,-78.81353,118308.4,-598241.5,
104,4,23,00:47:34,146779.9,3,0,-,877872.9,-73.91572,243215.8,-843508.7,
106,4,25,00:47:41,100000,3,0,-,1234179,-67.46627,472971.1,-1139954,
108,4,27,00:47:47,68129.21,3,0,-,1673647,-58.9885,862279.8,-1434422,
110,4,29,00:47:56,46415.89,3,0,-,2151885,-48.82367,1416755,-1619696,
112,4,31,00:48:03,31622.78,3,0,-,2580162,-38.01639,2032741,-1589088,
114,4,33,00:48:09,21544.35,3,0,-,2873893,-28.25418,2531486,-1360455,
116,4,35,00:48:16,14677.99,3,0,-,3009230,-21.12254,2807045,-1084418,
118,4,37,00:48:23,10000,3,0,-,3025596,-17.0914,2891977,-889212.8,
120,4,39,00:48:30,6812.92,3,0,-,3031118,-16.44368,2907141,-858026.6,
122,4,41,00:48:36,4641.589,3,0,-,3068688,-19.23657,2897352,-1011039,
124,4,43,00:48:43,3162.278,3,0,-,3217358,-24.67092,2923678,-1342944,
126,4,45,00:48:50,2154.435,3,0,-,3523251,-31.68101,2998235,-1850375,
128,4,47,00:48:56,1467.799,3,0,-,4129288,-38.80243,3218002,-2587564,
130,4,49,00:49:03,1000,3,0,-,5062246,-44.65223,3601210,-3557755,
132,4,51,00:49:10,681.2921,3,0,-,6365228,-48.66202,4204231,-4779181,
134,4,53,00:49:17,464.1589,3,0,-,8026375,-51.19163,5030273,-6254523,
136,4,55,00:49:24,316.2278,3,0,-,1.0039E+07,-53.19653,6014089,-8038180,
138,4,57,00:49:33,215.4435,3,0,-,1.251873E+07,-55.8979,7018871,-1.036601E+07,
140,4,59,00:49:39,146.7799,3,0,-,1.580527E+07,-59.44973,8033732,-1.361124E+07,
142,4,61,00:49:46,100,3,0,-,2.046126E+07,-63.7183,9059938,-1.834613E+07,
144,5,2,00:49:56,68.1292,3,0,-,2.733233E+07,-67.97343,1.025063E+07,-2.533734E+07,
146,5,4,00:50:04,31.62278,3,0,-,5.249931E+07,-73.78508,1.465998E+07,-5.041094E+07,
148,5,6,00:50:13,14.67799,3,0,-,1.045755E+08,-74.68906,2.761393E+07,-1.008638E+08,
150,5,8,00:50:28,6.812921,3,0,-,2.048276E+08,-71.05624,6.649528E+07,-1.937336E+08,
152,5,10,00:50:47,3.162278,3,0,-,3.784796E+08,-63.14442,1.709757E+08,-3.376598E+08,
154,5,12,00:51:19,1.467799,3,0,-,6.302003E+08,-52.17419,3.864786E+08,-4.977818E+08,
156,6,1,00:51:55,1,3,0,-,7.740762E+08,-46.42429,5.335804E+08,-5.607904E+08,
158,6,3,00:53:08,0.2154435,3,0,-,1.338966E+09,-30.6799,1.151553E+09,-6.831956E+08,
160,6,5,00:59:36,0.04641589,3,0,-,2.005787E+09,-28.95083,1.755135E+09,-9.709188E+08,
161,6,6,01:05:51,0.02154435,3,0,-,2.948231E+10,106.4015,-8.324826E+09,2.828257E+10,