File: data_example/1_solartron_output/V429_w48.csv
Exported SMaRT Impedance Data
Experiment start time : 3/7/2011 11:07:37 AM

Result Number,Sweep Number,Point Number,Time,Frequency (Hz),AC Level (V),DC Level (V),Temperature (K),Impedance Magnitude (Ohms),Impedance Phase Degrees ('),Impedance Real (Ohms),Impedance Imaginary (Ohms)
1,1,1,00:00:08,10000000,3,0,-,4536.207,-99.28561,-731.9451,-4476.765,
3,1,3,00:00:15,6812921,3,0,-,10517.1,-84.29018,1046.352,-10464.92,
5,1,5,00:00:24,4641589,3,0,-,18203.16,-86.56515,1090.622,-18170.46,
7,1,7,00:00:31,3162278,3,0,-,31902.31,-86.72181,1824.312,-31850.11,
9,1,9,00:00:38,2154435,3,0,-,57668.13,-89.66566,336.5266,-57667.15,
11,1,11,00:00:44,1467799,3,0,-,87835.27,-90.2186,-335.1173,-87834.63,
13,1,13,00:00:51,1000000,3,0,-,134452.1,-87.76113,5252.502,-134349.4,
15,1,15,00:00:57,681292.1,3,0,-,197946.9,-86.80373,11036.88,-197639,
17,1,17,00:01:05,464158.9,3,0,-,289791,-85.63895,22036.15,-288951.9,
19,1,19,00:01:11,316227.8,3,0,-,423202.7,-84.10384,43473.94,-420963.8,
21,1,21,00:01:18,215443.5,3,0,-,616875.9,-81.62868,89809.72,-610303.3,
23,1,23,00:01:24,146779.9,3,0,-,895828.1,-77.88466,188017,-875875.4,
25,1,25,00:01:31,100000,3,0,-,1281581,-72.92272,376351.1,-1225076,
27,1,27,00:01:37,68129.21,3,0,-,1791951,-66.02984,727999.8,-1637408,
29,1,29,00:01:46,46415.89,3,0,-,2410958,-57.1469,1307913,-2025359,
31,1,31,00:01:52,31622.78,3,0,-,3056466,-46.68778,2096655,-2223965,
33,1,33,00:01:59,21544.35,3,0,-,3607806,-36.15984,2912850,-2128749,
35,1,35,00:02:06,14677.99,3,0,-,3922057,-27.0886,3491821,-1785978,
37,1,37,00:02:13,10000,3,0,-,4084478,-20.69181,3821007,-1443214,
39,1,39,00:02:19,6812.92,3,0,-,4124939,-17.57629,3932369,-1245630,
41,1,41,00:02:26,4641.589,3,0,-,4134086,-18.06825,3930225,-1282185,
43,1,43,00:02:32,3162.278,3,0,-,4229495,-21.62779,3931730,-1558888,
45,1,45,00:02:39,2154.435,3,0,-,4511862,-28.20653,3976076,-2132536,
47,1,47,00:02:46,1467.799,3,0,-,5059833,-35.93138,4097050,-2969190,
49,1,49,00:02:53,1000,3,0,-,6078813,-43.36206,4419477,-4173750,
51,1,51,00:03:00,681.2921,3,0,-,7662609,-49.28757,4998037,-5808202,
53,1,53,00:03:07,464.1589,3,0,-,9904883,-53.03847,5955596,-7914391,
55,1,55,00:03:13,316.2278,3,0,-,1.280101E+07,-54.84059,7371505,-1.04655E+07,
57,1,57,00:03:22,215.4435,3,0,-,1.629575E+07,-55.85865,9145772,-1.348727E+07,
59,1,59,00:03:28,146.7799,3,0,-,2.048917E+07,-57.30152,1.106862E+07,-1.724215E+07,
61,1,61,00:03:35,100,3,0,-,2.57896E+07,-59.90538,1.293167E+07,-2.231312E+07,
63,2,2,00:03:45,68.1292,3,0,-,3.307084E+07,-63.6451,1.468115E+07,-2.96335E+07,
65,2,4,00:03:53,31.62278,3,0,-,5.95326E+07,-71.99616,1.840039E+07,-5.661764E+07,
67,2,6,00:04:01,14.67799,3,0,-,1.177561E+08,-77.24958,2.598935E+07,-1.148523E+08,
69,2,8,00:04:16,6.812921,3,0,-,2.396691E+08,-78.28149,4.867774E+07,-2.346737E+08,
71,2,10,00:04:31,3.162278,3,0,-,4.82606E+08,-75.69588,1.19237E+08,-4.676442E+08,
73,2,12,00:05:01,1.467799,3,0,-,9.416471E+08,-69.40292,3.31266E+08,-8.814545E+08,
75,3,1,00:05:46,1,3,0,-,1.270983E+09,-64.64601,5.442472E+08,-1.148561E+09,
77,3,3,00:06:58,0.2154435,3,0,-,3.126808E+09,-40.30761,2.384449E+09,-2.022704E+09,
79,3,5,00:14:09,0.04641589,3,0,-,5.801737E+09,-29.3588,5.0566E+09,-2.844458E+09,
81,3,7,00:43:38,0.01,3,0,-,1.919466E+11,19.98311,1.803901E+11,6.55964E+10,
83,4,2,00:43:52,8254042,3,0,-,4453.59,-68.89624,1603.552,-4154.887,
85,4,4,00:44:01,5623413,3,0,-,13713.46,-84.92521,1213.043,-13659.71,
87,4,6,00:44:08,3831187,3,0,-,24294.68,-86.4243,1515.2,-24247.39,
89,4,8,00:44:14,2610157,3,0,-,46612.61,-88.60336,1136.127,-46598.76,
91,4,10,00:44:21,1778280,3,0,-,71126.16,-90.08612,-106.9035,-71126.08,
93,4,12,00:44:27,1211528,3,0,-,110563.6,-87.76048,4320.53,-110479.2,
95,4,14,00:44:34,825404.2,3,0,-,163049,-87.1212,8188.94,-162843.2,
97,4,16,00:44:42,562341.3,3,0,-,239411,-86.06355,16435.64,-238846.2,
99,4,18,00:44:48,383118.7,3,0,-,350104.1,-84.59187,32997.25,-348545.6,
101,4,20,00:44:55,261015.7,3,0,-,510485.1,-82.4699,66897.7,-506082.7,
103,4,22,00:45:01,177828,3,0,-,741082.4,-79.35209,136932.4,-728321.8,
105,4,24,00:45:08,121152.8,3,0,-,1069759,-74.57941,284451.9,-1031247,
107,4,26,00:45:14,82540.42,3,0,-,1505876,-68.3911,554567.8,-1400041,
109,4,28,00:45:23,56234.13,3,0,-,2057095,-60.09098,1025718,-1783127,
111,4,30,00:45:30,38311.87,3,0,-,2660805,-50.03101,1709229,-2039220,
113,4,32,00:45:36,26101.57,3,0,-,3213533,-39.26181,2488118,-2033732,
115,4,34,00:45:43,17782.79,3,0,-,3581562,-29.52319,3116519,-1764907,
117,4,36,00:45:49,12115.28,3,0,-,3773154,-22.17054,3494185,-1423855,
119,4,38,00:45:56,8254.041,3,0,-,3822159,-18.00595,3634967,-1181489,
121,4,40,00:46:03,5623.413,3,0,-,3834337,-17.2925,3661024,-1139756,
123,4,42,00:46:10,3831.187,3,0,-,3871199,-20.10308,3635349,-1330570,
125,4,44,00:46:16,2610.157,3,0,-,4067137,-25.7424,3663498,-1766462,
127,4,46,00:46:23,1778.279,3,0,-,4469826,-33.05478,3746382,-2438024,
129,4,48,00:46:30,1211.528,3,0,-,5264661,-40.59366,3997686,-3425663,
131,4,50,00:46:37,825.4042,3,0,-,6536680,-47.04734,4454054,-4784306,
133,4,52,00:46:44,562.3413,3,0,-,8362337,-51.46225,5209990,-6541000,
135,4,54,00:46:51,383.1187,3,0,-,1.075986E+07,-53.65246,6377174,-8666386,
137,4,56,00:46:59,261.0157,3,0,-,1.368713E+07,-54.95747,7858935,-1.120601E+07,
139,4,58,00:47:06,177.8279,3,0,-,1.718906E+07,-56.49434,9488695,-1.433277E+07,
141,4,60,00:47:13,121.1528,3,0,-,2.159072E+07,-59.03972,1.110721E+07,-1.851456E+07,
143,5,1,00:47:22,100,3,0,-,2.431477E+07,-60.77639,1.187094E+07,-2.122E+07,
145,5,3,00:47:32,46.41589,3,0,-,4.203065E+07,-69.22195,1.491034E+07,-3.929704E+07,
147,5,5,00:47:40,21.54435,3,0,-,8.124898E+07,-75.607,2.019621E+07,-7.869886E+07,
149,5,7,00:47:49,10,3,0,-,1.64253E+08,-77.61698,3.522341E+07,-1.604317E+08,