File: data_example/1_solartron_output/V429_w53.csv
Exported SMaRT Impedance Data
Experiment start time : 3/7/2011 8:12:34 AM

Result Number,Sweep Number,Point Number,Time,Frequency (Hz),AC Level (V),DC Level (V),Temperature (K),Impedance Magnitude (Ohms),Impedance Phase Degrees ('),Impedance Real (Ohms),Impedance Imaginary (Ohms)
1,1,1,00:00:08,10000000,3,0,-,4550.457,-99.52496,-753.0001,-4487.722,
3,1,3,00:00:26,6812921,3,0,-,10548.1,-84.36404,1035.906,-10497.11,
5,1,5,00:00:38,4641589,3,0,-,18221.3,-86.70509,1047.281,-18191.18,
7,1,7,00:00:45,3162278,3,0,-,31924.76,-86.7017,1836.786,-31871.88,
9,1,9,00:00:51,2154435,3,0,-,57742.02,-89.79803,203.56,-57741.66,
11,1,11,00:00:58,1467799,3,0,-,87841.23,-90.48975,-750.8677,-87838.02,
13,1,13,00:01:04,1000000,3,0,-,134606.1,-87.96243,4785.934,-134521,
15,1,15,00:01:11,681292.1,3,0,-,198173.1,-87.32342,9254.391,-197956.9,
17,1,17,00:01:19,464158.9,3,0,-,290370.1,-86.50713,17690.72,-289830.7,
19,1,19,00:01:25,316227.8,3,0,-,424969.5,-85.17751,35726.88,-423465.1,
21,1,21,00:01:32,215443.5,3,0,-,620371.9,-83.33672,71984.6,-616181.4,
23,1,23,00:01:39,146779.9,3,0,-,904923.3,-80.38258,151184.3,-892204.8,
25,1,25,00:01:45,100000,3,0,-,1306679,-76.32635,308887.7,-1269645,
27,1,27,00:01:52,68129.21,3,0,-,1856231,-70.63313,615555.5,-1751195,
29,1,29,00:02:01,46415.89,3,0,-,2568524,-63.04666,1164222,-2289521,
31,1,31,00:02:07,31622.78,3,0,-,3387650,-53.42577,2018579,-2720573,
33,1,33,00:02:14,21544.35,3,0,-,4201569,-42.83344,3081150,-2856518,
35,1,35,00:02:21,14677.99,3,0,-,4792087,-32.63076,4035718,-2584003,
37,1,37,00:02:27,10000,3,0,-,5124111,-24.49294,4663005,-2124359,
39,1,39,00:02:34,6812.92,3,0,-,5240515,-19.45496,4941300,-1745436,
41,1,41,00:02:41,4641.589,3,0,-,5260662,-17.85558,5007269,-1613017,
43,1,43,00:02:47,3162.278,3,0,-,5297883,-19.84726,4983194,-1798705,
45,1,45,00:02:54,2154.435,3,0,-,5503064,-24.89445,4991746,-2316503,
47,1,47,00:03:01,1467.799,3,0,-,6018917,-32.15774,5095531,-3203580,
49,1,49,00:03:07,1000,3,0,-,6950935,-40.25558,5304743,-4491681,
51,1,51,00:03:14,681.2921,3,0,-,8578914,-47.61528,5783094,-6336687,
53,1,53,00:03:21,464.1589,3,0,-,1.106437E+07,-53.10865,6641940,-8849012,
55,1,55,00:03:28,316.2278,3,0,-,1.456026E+07,-56.21651,8096326,-1.210169E+07,
57,1,57,00:03:36,215.4435,3,0,-,1.90662E+07,-57.37342,1.027976E+07,-1.60576E+07,
59,1,59,00:03:43,146.7799,3,0,-,2.447482E+07,-57.73152,1.30668E+07,-2.069482E+07,
61,1,61,00:03:50,100,3,0,-,3.091844E+07,-58.62452,1.609751E+07,-2.639735E+07,
63,2,2,00:04:01,68.1292,3,0,-,3.898671E+07,-60.77812,1.903305E+07,-3.402509E+07,
65,2,4,00:04:08,31.62278,3,0,-,6.5882E+07,-68.39246,2.426086E+07,-6.125233E+07,
67,2,6,00:04:17,14.67799,3,0,-,1.250718E+08,-75.86672,3.053983E+07,-1.212859E+08,
69,2,8,00:04:31,6.812921,3,0,-,2.538256E+08,-79.67005,4.551518E+07,-2.497114E+08,
71,2,10,00:04:49,3.162278,3,0,-,5.21414E+08,-79.91156,9.133518E+07,-5.133522E+08,
73,2,12,00:05:19,1.467799,3,0,-,1.064119E+09,-77.20525,2.356592E+08,-1.037696E+09,
75,3,1,00:06:04,1,3,0,-,1.492225E+09,-74.69305,3.93933E+08,-1.439289E+09,
77,3,3,00:07:16,0.2154435,3,0,-,4.875065E+09,-56.69581,2.676821E+09,-4.074419E+09,
79,4,1,00:09:32,10000000,3,0,-,4530.701,-99.87057,-776.6682,-4463.635,
81,4,3,00:09:40,6812921,3,0,-,10566.23,-84.6478,985.5969,-10520.17,
83,4,5,00:09:49,4641589,3,0,-,18279.41,-87.0992,925.0706,-18255.99,
85,4,7,00:09:56,3162278,3,0,-,31959.85,-87.10619,1613.501,-31919.09,
87,4,9,00:10:03,2154435,3,0,-,57934.74,-90.25504,-257.8859,-57934.16,
89,4,11,00:10:09,1467799,3,0,-,88105.39,-90.69739,-1072.391,-88098.87,
91,4,13,00:10:16,1000000,3,0,-,135241.4,-88.12325,4429.13,-135168.9,
93,4,15,00:10:22,681292.1,3,0,-,198495.4,-87.36491,9125.86,-198285.5,
95,4,17,00:10:30,464158.9,3,0,-,290627.5,-86.43571,18067.98,-290065.3,
97,4,19,00:10:37,316227.8,3,0,-,425471.1,-85.15086,35966.23,-423948.2,
99,4,21,00:10:43,215443.5,3,0,-,620436.9,-83.27966,72605.78,-616173.9,
101,4,23,00:10:50,146779.9,3,0,-,906099.1,-80.26176,153264.4,-893042.9,
103,4,25,00:10:56,100000,3,0,-,1305626,-76.24545,310429.8,-1268184,
105,4,27,00:11:03,68129.21,3,0,-,1853555,-70.58172,616236.9,-1748118,
107,4,29,00:11:12,46415.89,3,0,-,2559861,-62.8294,1168939,-2277382,
109,4,31,00:11:18,31622.78,3,0,-,3376844,-53.20305,2022666,-2704052,
111,4,33,00:11:24,21544.35,3,0,-,4167104,-42.49289,3072662,-2814873,
113,4,35,00:11:31,14677.99,3,0,-,4780729,-32.39262,4036834,-2561122,
115,4,37,00:11:38,10000,3,0,-,5087997,-24.39539,4633725,-2101501,
117,4,39,00:11:45,6812.92,3,0,-,5202210,-19.3501,4908346,-1723697,
119,4,41,00:11:51,4641.589,3,0,-,5240196,-17.87998,4987103,-1608866,
121,4,43,00:11:58,3162.278,3,0,-,5260255,-19.74777,4950895,-1777335,
123,4,45,00:12:05,2154.435,3,0,-,5467758,-25.00411,4955306,-2311130,
125,4,47,00:12:11,1467.799,3,0,-,5988018,-32.26507,5063393,-3196625,
127,4,49,00:12:18,1000,3,0,-,6919052,-40.36117,5272162,-4480803,
129,4,51,00:12:25,681.2921,3,0,-,8549298,-47.68682,5755241,-6322002,
131,4,53,00:12:32,464.1589,3,0,-,1.103074E+07,-53.1335,6617926,-8824986,
133,4,55,00:12:39,316.2278,3,0,-,1.451071E+07,-56.19028,8074295,-1.205681E+07,
135,4,57,00:12:47,215.4435,3,0,-,1.89875E+07,-57.31459,1.025375E+07,-1.59808E+07,
137,4,59,00:12:54,146.7799,3,0,-,2.436262E+07,-57.69088,1.302151E+07,-2.059072E+07,
139,4,61,00:13:01,100,3,0,-,3.075592E+07,-58.63703,1.600717E+07,-2.626209E+07,
141,5,2,00:13:12,68.1292,3,0,-,3.879907E+07,-60.82477,1.891386E+07,-3.387674E+07,
143,5,4,00:13:19,31.62278,3,0,-,6.564046E+07,-68.507,2.404986E+07,-6.107598E+07,
145,5,6,00:13:28,14.67799,3,0,-,1.248421E+08,-75.94205,3.032456E+07,-1.211032E+08,
147,5,8,00:13:42,6.812921,3,0,-,2.53483E+08,-79.6801,4.541001E+07,-2.493823E+08,
149,5,10,00:13:58,3.162278,3,0,-,5.205925E+08,-79.85127,9.17306E+07,-5.124471E+08,
151,5,12,00:14:28,1.467799,3,0,-,1.061628E+09,-77.09546,2.370909E+08,-1.034815E+09,
153,6,1,00:15:13,1,3,0,-,1.489805E+09,-74.53632,3.972234E+08,-1.435873E+09,
155,6,3,00:16:27,0.2154435,3,0,-,4.848944E+09,-55.37586,2.755124E+09,-3.990181E+09,
157,7,1,00:18:42,10000000,3,0,-,4529.892,-100.1931,-801.6432,-4458.395,
159,7,3,00:18:50,6812921,3,0,-,10566.47,-84.83936,950.4409,-10523.64,
161,7,5,00:19:00,4641589,3,0,-,18282.15,-87.31405,856.7355,-18262.07,
163,7,7,00:19:06,3162278,3,0,-,32019.06,-87.33585,1488.305,-31984.46,
165,7,9,00:19:13,2154435,3,0,-,57965.63,-90.28601,-289.3767,-57964.91,
167,7,11,00:19:19,1467799,3,0,-,88212.33,-90.72336,-1113.711,-88205.3,
169,7,13,00:19:26,1000000,3,0,-,134941.4,-88.10273,4467.628,-134867.4,
171,7,15,00:19:32,681292.1,3,0,-,198603.7,-87.36375,9134.84,-198393.5,
173,7,17,00:19:40,464158.9,3,0,-,290493.9,-86.48835,17793.29,-289948.4,
175,7,19,00:19:47,316227.8,3,0,-,424884.7,-85.23772,35274.8,-423417.9,
177,7,21,00:19:53,215443.5,3,0,-,620031.7,-83.30603,72274.91,-615804.9,
179,7,23,00:20:00,146779.9,3,0,-,905201.1,-80.22443,153693.8,-892057.9,
181,7,25,00:20:06,100000,3,0,-,1305419,-76.17368,311968.9,-1267594,
183,7,27,00:20:12,68129.21,3,0,-,1854456,-70.4656,620080,-1747715,
185,7,29,00:20:21,46415.89,3,0,-,2564483,-62.794,1172459,-2280770,
187,7,31,00:20:28,31622.78,3,0,-,3372855,-53.11259,2024538,-2697665,
189,7,33,00:20:34,21544.35,3,0,-,4153146,-42.35999,3068869,-2798333,
191,7,35,00:20:41,14677.99,3,0,-,4726003,-32.30005,3994708,-2525354,
193,7,37,00:20:48,10000,3,0,-,5058660,-24.39406,4607056,-2089277,
195,7,39,00:20:55,6812.92,3,0,-,5174873,-19.31442,4883619,-1711599,
197,7,41,00:21:01,4641.589,3,0,-,5199785,-17.7508,4952231,-1585297,
199,7,43,00:21:08,3162.278,3,0,-,5246636,-19.80372,4936344,-1777555,
201,7,45,00:21:14,2154.435,3,0,-,5454408,-24.97697,4944299,-2303145,
203,7,47,00:21:21,1467.799,3,0,-,5976173,-32.35276,5048489,-3198032,
205,7,49,00:21:28,1000,3,0,-,6909183,-40.40438,5261266,-4478381,
207,7,51,00:21:35,681.2921,3,0,-,8537417,-47.71876,5743722,-6316419,
209,7,53,00:21:42,464.1589,3,0,-,1.101605E+07,-53.12502,6610414,-8812253,
211,7,55,00:21:49,316.2278,3,0,-,1.448955E+07,-56.16225,8068411,-1.203528E+07,
213,7,57,00:21:57,215.4435,3,0,-,1.895483E+07,-57.28077,1.024552E+07,-1.594726E+07,
215,7,59,00:22:04,146.7799,3,0,-,2.430844E+07,-57.67389,1.299864E+07,-2.054107E+07,
217,7,61,00:22:12,100,3,0,-,3.068539E+07,-58.63814,1.596995E+07,-2.620217E+07,
219,8,2,00:22:22,68.1292,3,0,-,3.869959E+07,-60.85752,1.884605E+07,-3.380066E+07,
221,8,4,00:22:29,31.62278,3,0,-,6.553888E+07,-68.54786,2.396915E+07,-6.099856E+07,
223,8,6,00:22:38,14.67799,3,0,-,1.24729E+08,-75.9819,3.021296E+07,-1.210145E+08,
225,8,8,00:22:52,6.812921,3,0,-,2.533055E+08,-79.69321,4.53212E+07,-2.492181E+08,
227,8,10,00:23:11,3.162278,3,0,-,5.203194E+08,-79.85169,9.167876E+07,-5.121789E+08,
229,8,12,00:23:41,1.467799,3,0,-,1.060836E+09,-77.0535,2.376712E+08,-1.03387E+09,
231,9,1,00:24:26,1,3,0,-,1.487755E+09,-74.47211,3.982832E+08,-1.433452E+09,
233,9,3,00:25:40,0.2154435,3,0,-,4.854185E+09,-55.69769,2.735622E+09,-4.009923E+09,
235,10,1,00:27:55,10000000,3,0,-,4540.569,-99.56088,-754.1683,-4477.499,
236,10,2,00:28:00,8254042,3,0,-,4481.491,-68.89741,1613.512,-4180.95,