File: data_example/1_solartron_output/V429_w45.csv
Exported SMaRT Impedance Data
Experiment start time : 3/7/2011 11:58:25 AM

Result Number,Sweep Number,Point Number,Time,Frequency (Hz),AC Level (V),DC Level (V),Temperature (K),Impedance Magnitude (Ohms),Impedance Phase Degrees ('),Impedance Real (Ohms),Impedance Imaginary (Ohms)
1,1,1,00:00:08,10000000,3,0,-,4516.137,-99.30392,-730.1303,-4456.725,
3,1,3,00:00:15,6812921,3,0,-,10475.76,-84.36471,1028.679,-10425.13,
5,1,5,00:00:25,4641589,3,0,-,18220.4,-86.72362,1041.346,-18190.62,
7,1,7,00:00:31,3162278,3,0,-,31885.48,-86.78756,1786.819,-31835.38,
9,1,9,00:00:38,2154435,3,0,-,57668.13,-89.6905,311.5337,-57667.29,
11,1,11,00:00:44,1467799,3,0,-,87803.18,-90.16846,-258.1784,-87802.8,
13,1,13,00:00:51,1000000,3,0,-,134537.9,-87.50597,5854.505,-134410.5,
15,1,15,00:00:57,681292.1,3,0,-,197755.4,-86.60944,11695.69,-197409.3,
17,1,17,00:01:05,464158.9,3,0,-,289490.7,-85.28062,23818.07,-288509.2,
19,1,19,00:01:12,316227.8,3,0,-,422897.4,-83.52565,47685.38,-420200.3,
21,1,21,00:01:18,215443.5,3,0,-,615453.6,-80.93716,96944.95,-607770.3,
23,1,23,00:01:25,146779.9,3,0,-,891481.6,-76.94634,201353.3,-868444.8,
25,1,25,00:01:31,100000,3,0,-,1270302,-71.45579,404002.5,-1204346,
27,1,27,00:01:37,68129.21,3,0,-,1764908,-64.15672,769343.3,-1588399,
29,1,29,00:01:46,46415.89,3,0,-,2342391,-54.86053,1348207,-1915498,
31,1,31,00:01:53,31622.78,3,0,-,2922411,-44.19999,2095108,-2037402,
33,1,33,00:01:59,21544.35,3,0,-,3381607,-33.73934,2812053,-1878197,
35,1,35,00:02:06,14677.99,3,0,-,3678659,-25.12508,3330595,-1561943,
37,1,37,00:02:13,10000,3,0,-,3770797,-19.61986,3551869,-1266151,
39,1,39,00:02:20,6812.92,3,0,-,3787424,-17.15001,3619020,-1116815,
41,1,41,00:02:26,4641.589,3,0,-,3802041,-18.38503,3607979,-1199168,
43,1,43,00:02:33,3162.278,3,0,-,3896395,-22.63839,3596188,-1499776,
45,1,45,00:02:40,2154.435,3,0,-,4209958,-29.375,3668675,-2065083,
47,1,47,00:02:46,1467.799,3,0,-,4776316,-36.98065,3815506,-2873170,
49,1,49,00:02:53,1000,3,0,-,5794059,-44.12122,4159373,-4033699,
51,1,51,00:03:00,681.2921,3,0,-,7326470,-49.44763,4763253,-5566739,
53,1,53,00:03:07,464.1589,3,0,-,9426104,-52.66006,5717336,-7494232,
55,1,55,00:03:14,316.2278,3,0,-,1.205967E+07,-54.26128,7043933,-9788699,
57,1,57,00:03:22,215.4435,3,0,-,1.522128E+07,-55.58027,8603849,-1.255632E+07,
59,1,59,00:03:29,146.7799,3,0,-,1.908271E+07,-57.64545,1.021225E+07,-1.612017E+07,
61,1,61,00:03:36,100,3,0,-,2.413151E+07,-60.8559,1.175224E+07,-2.10764E+07,
63,2,2,00:03:46,68.1292,3,0,-,3.128351E+07,-64.98306,1.322937E+07,-2.834858E+07,
65,2,4,00:03:54,31.62278,3,0,-,5.76496E+07,-72.89157,1.695943E+07,-5.509859E+07,
67,2,6,00:04:02,14.67799,3,0,-,1.148929E+08,-76.90433,2.603222E+07,-1.119049E+08,
69,2,8,00:04:16,6.812921,3,0,-,2.325552E+08,-76.56076,5.404915E+07,-2.261871E+08,
71,2,10,00:04:32,3.162278,3,0,-,4.599626E+08,-72.15039,1.409876E+08,-4.37822E+08,
73,2,12,00:05:02,1.467799,3,0,-,8.624506E+08,-63.57436,3.838218E+08,-7.723354E+08,
75,3,1,00:05:47,1,3,0,-,1.125913E+09,-57.76511,6.005526E+08,-9.523745E+08,
77,3,3,00:07:20,0.2154435,3,0,-,2.378753E+09,-35.5798,1.934654E+09,-1.384044E+09,
79,3,5,00:14:30,0.04641589,3,0,-,5.104541E+09,-30.58023,4.39459E+09,-2.596906E+09,
81,3,7,00:37:17,0.01,3,0,-,3.901873E+10,33.41165,3.257034E+10,2.148568E+10,
83,4,2,00:37:30,8254042,3,0,-,4445.348,-69.12847,1583.762,-4153.651,
85,4,4,00:37:40,5623413,3,0,-,13694.01,-85.2278,1139.267,-13646.54,
87,4,6,00:37:46,3831187,3,0,-,24247.09,-86.6891,1400.371,-24206.62,
89,4,8,00:37:53,2610157,3,0,-,46636.97,-88.84929,936.5944,-46627.56,
91,4,10,00:37:59,1778280,3,0,-,71206.58,-90.21796,-270.9066,-71206.06,
93,4,12,00:38:06,1211528,3,0,-,110600,-87.79583,4253.775,-110518.2,
95,4,14,00:38:12,825404.2,3,0,-,163236.1,-87.02704,8466.249,-163016.4,
97,4,16,00:38:20,562341.3,3,0,-,239354.8,-85.94312,16933.69,-238755.1,
99,4,18,00:38:27,383118.7,3,0,-,349925.7,-84.37527,34297.22,-348240.9,
101,4,20,00:38:33,261015.7,3,0,-,509680.2,-82.22894,68916.58,-504999.4,
103,4,22,00:38:40,177828,3,0,-,739145.9,-78.9867,141204.3,-725532.9,
105,4,24,00:38:46,121152.8,3,0,-,1065126,-74.03693,292928.7,-1024054,
107,4,26,00:38:53,82540.42,3,0,-,1498962,-67.65766,569815.1,-1386433,
109,4,28,00:39:02,56234.13,3,0,-,2035825,-59.17494,1043195,-1748236,
111,4,30,00:39:08,38311.87,3,0,-,2613904,-49.01593,1714327,-1973215,
113,4,32,00:39:15,26101.57,3,0,-,3140749,-38.26782,2465878,-1945185,
115,4,34,00:39:21,17782.79,3,0,-,3484172,-28.7368,3055053,-1675144,
117,4,36,00:39:28,12115.28,3,0,-,3659041,-21.69832,3399774,-1352819,
119,4,38,00:39:35,8254.041,3,0,-,3702525,-17.73049,3526653,-1127566,
121,4,40,00:39:42,5623.413,3,0,-,3710238,-17.28025,3542770,-1102110,
123,4,42,00:39:48,3831.187,3,0,-,3751328,-20.2438,3519604,-1298017,
125,4,44,00:39:55,2610.157,3,0,-,3955996,-26.0154,3555160,-1735150,
127,4,46,00:40:02,1778.279,3,0,-,4371009,-33.44091,3647408,-2408761,
129,4,48,00:40:09,1211.528,3,0,-,5167974,-40.96867,3902173,-3388362,
131,4,50,00:40:16,825.4042,3,0,-,6415726,-47.005,4375106,-4692546,
133,4,52,00:40:23,562.3413,3,0,-,8213519,-51.31376,5133905,-6411311,
135,4,54,00:40:29,383.1187,3,0,-,1.053269E+07,-53.40752,6278741,-8456646,
137,4,56,00:40:38,261.0157,3,0,-,1.335471E+07,-54.78088,7701732,-1.091016E+07,
139,4,58,00:40:45,177.8279,3,0,-,1.675253E+07,-56.49245,9248183,-1.396848E+07,
141,4,60,00:40:52,121.1528,3,0,-,2.105699E+07,-59.26669,1.076103E+07,-1.809965E+07,
143,5,1,00:41:00,100,3,0,-,2.3762E+07,-61.07911,1.149135E+07,-2.07986E+07,
145,5,3,00:41:09,46.41589,3,0,-,4.142697E+07,-69.66109,1.439889E+07,-3.884412E+07,
147,5,5,00:41:17,21.54435,3,0,-,8.04121E+07,-75.79152,1.973725E+07,-7.795222E+07,
149,5,7,00:41:26,10,3,0,-,1.626697E+08,-77.50807,3.518583E+07,-1.588187E+08,
151,5,9,00:41:41,4.641589,3,0,-,3.271704E+08,-75.19622,8.359526E+07,-3.163104E+08,
153,5,11,00:42:06,2.154435,3,0,-,6.3194E+08,-68.96784,2.267983E+08,-5.898396E+08,
155,5,13,00:42:48,1,3,0,-,1.131584E+09,-58.80643,5.860828E+08,-9.679825E+08,
157,6,2,00:43:37,0.4641589,3,0,-,1.767983E+09,-46.57003,1.215431E+09,-1.283935E+09,
159,6,4,00:48:04,0.1,3,0,-,8.284741E+09,-40.65436,6.285249E+09,-5.39746E+09,
161,6,6,01:01:51,0.02154435,3,0,-,4.646085E+09,-35.55328,3.77994E+09,-2.701511E+09,
163,7,1,01:15:25,10000000,3,0,-,4490.892,-99.88931,-771.2922,-4424.163,
165,7,3,01:15:32,6812921,3,0,-,10479.54,-85.04438,905.2684,-10440.37,
167,7,5,01:15:42,4641589,3,0,-,18199.86,-87.30986,854.2084,-18179.81,
169,7,7,01:15:48,3162278,3,0,-,31981.67,-87.34055,1483.946,-31947.23,
171,7,9,01:15:55,2154435,3,0,-,57864.57,-90.09192,-92.83507,-57864.49,
173,7,11,01:16:01,1467799,3,0,-,88054.02,-90.3428,-526.8972,-88052.45,
175,7,13,01:16:08,1000000,3,0,-,134792.4,-87.66364,5494.976,-134680.3,
177,7,15,01:16:14,681292.1,3,0,-,198104.3,-86.52291,12014.97,-197739.6,
179,7,17,01:16:22,464158.9,3,0,-,289691.4,-85.15929,24445.96,-288658.1,
181,7,19,01:16:29,316227.8,3,0,-,422728.7,-83.21204,49964.69,-419765.5,
183,7,21,01:16:35,215443.5,3,0,-,613734.9,-80.55246,100741.4,-605410.3,
185,7,23,01:16:42,146779.9,3,0,-,888880.6,-76.28165,210797.6,-863523.7,
187,7,25,01:16:48,100000,3,0,-,1263216,-70.68294,417866.3,-1192100,
189,7,27,01:16:54,68129.21,3,0,-,1746382,-63.0791,790692.3,-1557131,
191,7,29,01:17:04,46415.89,3,0,-,2302510,-53.49152,1369860,-1850686,
193,7,31,01:17:10,31622.78,3,0,-,2853737,-42.74117,2095862,-1936796,
195,7,33,01:17:17,21544.35,3,0,-,3272590,-32.54602,2758662,-1760577,
197,7,35,01:17:23,14677.99,3,0,-,3504796,-24.07691,3199874,-1429825,
198,7,36,01:17:27,12115.28,3,0,-,3545826,-21.04092,3309405,-1273074,