File: data_example/1_solartron_output/V429_w50.csv
Exported SMaRT Impedance Data
Experiment start time : 3/7/2011 8:38:15 AM

Result Number,Sweep Number,Point Number,Time,Frequency (Hz),AC Level (V),DC Level (V),Temperature (K),Impedance Magnitude (Ohms),Impedance Phase Degrees ('),Impedance Real (Ohms),Impedance Imaginary (Ohms)
163,7,1,01:22:31,10000000,3,0,-,4531.071,-100.1425,-797.9067,-4460.263,
165,7,3,01:22:39,6812921,3,0,-,10576.5,-84.78081,962.1071,-10532.65,
167,7,5,01:22:49,4641589,3,0,-,18251.81,-87.1347,912.3815,-18229,
169,7,7,01:22:55,3162278,3,0,-,32006.13,-87.18647,1571.052,-31967.54,
171,7,9,01:23:02,2154435,3,0,-,57912.35,-90.15344,-155.11,-57912.14,
173,7,11,01:23:08,1467799,3,0,-,88124.74,-90.54105,-832.1952,-88120.81,
175,7,13,01:23:15,1000000,3,0,-,134747,-87.84301,5071.611,-134651.6,
177,7,15,01:23:21,681292.1,3,0,-,198369.7,-87.11349,9989.539,-198118,
179,7,17,01:23:29,464158.9,3,0,-,290252.2,-86.10587,19711.98,-289582.1,
181,7,19,01:23:35,316227.8,3,0,-,424188.3,-84.64886,39559.6,-422339.6,
183,7,21,01:23:42,215443.5,3,0,-,618672.3,-82.49393,80818.08,-613370.8,
185,7,23,01:23:48,146779.9,3,0,-,901442.3,-79.15521,169605.8,-885342.9,
187,7,25,01:23:55,100000,3,0,-,1294105,-74.64311,342719.1,-1247899,
189,7,27,01:24:01,68129.21,3,0,-,1827832,-68.34096,674621.3,-1698781,
191,7,29,01:24:10,46415.89,3,0,-,2492211,-60.05143,1244168,-2159435,
193,7,31,01:24:16,31622.78,3,0,-,3218923,-49.93613,2071832,-2463530,
195,7,33,01:24:23,21544.35,3,0,-,3876776,-39.11998,3007705,-2446037,
197,7,35,01:24:30,14677.99,3,0,-,4330973,-29.54609,3767770,-2135704,
199,7,37,01:24:36,10000,3,0,-,4549188,-22.40244,4205860,-1733740,
201,7,39,01:24:43,6812.92,3,0,-,4624267,-18.3371,4389456,-1454827,
203,7,41,01:24:50,4641.589,3,0,-,4637497,-17.84887,4414287,-1421426,
205,7,43,01:24:56,3162.278,3,0,-,4689337,-20.58194,4390018,-1648520,
207,7,45,01:25:03,2154.435,3,0,-,4946824,-26.60206,4423144,-2215144,
209,7,47,01:25:10,1467.799,3,0,-,5473020,-34.30607,4520926,-3084668,
211,7,49,01:25:17,1000,3,0,-,6477662,-42.05116,4809970,-4338698,
213,7,51,01:25:24,681.2921,3,0,-,8097299,-48.71576,5342558,-6084679,
215,7,53,01:25:30,464.1589,3,0,-,1.047925E+07,-53.25927,6268638,-8397552,
217,7,55,01:25:37,316.2278,3,0,-,1.369641E+07,-55.59884,7738249,-1.130093E+07,
219,7,57,01:25:45,215.4435,3,0,-,1.767465E+07,-56.48513,9759123,-1.473611E+07,
221,7,59,01:25:52,146.7799,3,0,-,2.239435E+07,-57.28471,1.210336E+07,-1.884185E+07,
223,7,61,01:25:59,100,3,0,-,2.816614E+07,-59.02641,1.449551E+07,-2.414978E+07,
225,8,2,01:26:09,68.1292,3,0,-,3.570294E+07,-62.10036,1.670628E+07,-3.155313E+07,
227,8,4,01:26:17,31.62278,3,0,-,6.229753E+07,-70.421,2.087631E+07,-5.86955E+07,
229,8,6,01:26:25,14.67799,3,0,-,1.212547E+08,-76.93708,2.740615E+07,-1.18117E+08,
231,8,8,01:26:39,6.812921,3,0,-,2.472088E+08,-79.37621,4.557534E+07,-2.429714E+08,
233,8,10,01:26:55,3.162278,3,0,-,5.040808E+08,-78.29298,1.022817E+08,-4.935948E+08,
235,8,12,01:27:25,1.467799,3,0,-,1.009467E+09,-73.88165,2.80251E+08,-9.697854E+08,
237,9,1,01:28:10,1,3,0,-,1.387101E+09,-69.97083,4.750803E+08,-1.303207E+09,
239,9,3,01:29:24,0.2154435,3,0,-,3.876924E+09,-46.97733,2.645178E+09,-2.834356E+09,
244,10,1,01:58:56,10000000,3,0,-,4548.514,-99.17514,-725.2747,-4490.318,
246,10,3,01:59:04,6812921,3,0,-,10538.12,-83.93902,1112.691,-10479.21,
248,10,5,01:59:13,4641589,3,0,-,18189.6,-86.34744,1158.792,-18152.65,
250,10,7,01:59:20,3162278,3,0,-,31868.08,-86.54851,1918.58,-31810.28,
252,10,9,01:59:26,2154435,3,0,-,57626.21,-89.60796,394.3144,-57624.87,
254,10,11,01:59:32,1467799,3,0,-,87681.3,-90.20877,-319.5425,-87680.72,
256,10,13,01:59:39,1000000,3,0,-,134197.1,-87.70727,5368.605,-134089.7,
258,10,15,01:59:46,681292.1,3,0,-,197791,-86.80314,11030.25,-197483.2,
260,10,17,01:59:54,464158.9,3,0,-,289841.2,-85.69868,21738.71,-289024.8,
262,10,19,02:00:00,316227.8,3,0,-,423228.8,-84.13562,43243.18,-421013.8,
264,10,21,02:00:06,215443.5,3,0,-,616903.4,-81.68783,89183.66,-610422.9,
266,10,23,02:00:13,146779.9,3,0,-,897106.9,-77.99609,186579.3,-877490.1,
268,10,25,02:00:19,100000,3,0,-,1282211,-73.0019,374842,-1226197,
270,10,27,02:00:26,68129.21,3,0,-,1794394,-66.15816,725318.1,-1641268,
272,10,29,02:00:35,46415.89,3,0,-,2418280,-57.31013,1306093,-2035240,
274,10,31,02:00:41,31622.78,3,0,-,3063876,-46.87704,2094363,-2236287,
276,10,33,02:00:48,21544.35,3,0,-,3620895,-36.30507,2917993,-2143876,
278,10,35,02:00:55,14677.99,3,0,-,3979826,-27.15422,3541175,-1816341,
280,10,37,02:01:02,10000,3,0,-,4113358,-20.83613,3844351,-1463106,
282,10,39,02:01:08,6812.92,3,0,-,4141007,-17.59982,3947173,-1252103,
284,10,41,02:01:15,4641.589,3,0,-,4160042,-17.94408,3957688,-1281661,
286,10,43,02:01:22,3162.278,3,0,-,4263273,-21.753,3959686,-1579995,
288,10,45,02:01:28,2154.435,3,0,-,4535478,-28.10957,4000510,-2136932,
290,10,47,02:01:35,1467.799,3,0,-,5084825,-35.90509,4118655,-2981966,
292,10,49,02:01:42,1000,3,0,-,6103521,-43.32239,4440341,-4187642,
294,10,51,02:01:49,681.2921,3,0,-,7691435,-49.28813,5016781,-5830101,
296,10,53,02:01:56,464.1589,3,0,-,9944865,-53.04564,5978643,-7947086,
298,10,55,02:02:03,316.2278,3,0,-,1.286022E+07,-54.89311,7395962,-1.052069E+07,
300,10,57,02:02:11,215.4435,3,0,-,1.638763E+07,-55.89936,9187701,-1.356984E+07,
302,10,59,02:02:18,146.7799,3,0,-,2.061368E+07,-57.30061,1.113616E+07,-1.734675E+07,
304,10,61,02:02:25,100,3,0,-,2.594355E+07,-59.83797,1.303527E+07,-2.2431E+07,
306,11,2,02:02:35,68.1292,3,0,-,3.324207E+07,-63.54052,1.48115E+07,-2.975995E+07,
308,11,4,02:02:43,31.62278,3,0,-,5.972753E+07,-71.85131,1.860419E+07,-5.675616E+07,
310,11,6,02:02:51,14.67799,3,0,-,1.179586E+08,-77.13137,2.627135E+07,-1.149958E+08,
312,11,8,02:03:05,6.812921,3,0,-,2.399161E+08,-78.19307,4.909039E+07,-2.348401E+08,
314,11,10,02:03:21,3.162278,3,0,-,4.829027E+08,-75.59733,1.20115E+08,-4.677257E+08,
316,11,12,02:03:51,1.467799,3,0,-,9.423388E+08,-69.20388,3.345716E+08,-8.80945E+08,
318,12,1,02:04:36,1,3,0,-,1.270331E+09,-64.42915,5.48309E+08,-1.145905E+09,
320,12,3,02:05:49,0.2154435,3,0,-,3.089027E+09,-41.65669,2.307939E+09,-2.05317E+09,
321,12,4,02:08:38,0.1,3,0,-,8.427724E+09,-35.15299,6.890656E+09,-4.85236E+09,