File: data_example/1_solartron_output/V429_w53b.csv
Exported SMaRT Impedance Data
Experiment start time : 3/7/2011 8:41:15 AM

Result Number,Sweep Number,Point Number,Time,Frequency (Hz),AC Level (V),DC Level (V),Temperature (K),Impedance Magnitude (Ohms),Impedance Phase Degrees ('),Impedance Real (Ohms),Impedance Imaginary (Ohms)
1,1,1,00:00:08,10000000,3,0,-,4543.613,-99.69275,-764.9857,-4478.752,
4,1,4,00:00:21,5623413,3,0,-,13782.47,-85.20859,1151.233,-13734.3,
7,1,7,00:00:31,3162278,3,0,-,31924.29,-86.90134,1725.694,-31877.62,
10,1,10,00:00:41,1778280,3,0,-,71385.58,-90.45602,-568.1834,-71383.32,
13,1,13,00:00:51,1000000,3,0,-,134665.6,-87.99246,4717.504,-134582.9,
16,1,16,00:01:02,562341.3,3,0,-,239963.5,-86.91583,12910.8,-239615.9,
19,1,19,00:01:12,316227.8,3,0,-,425146.1,-85.17569,35755.23,-423639.9,
22,1,22,00:01:21,177828,3,0,-,748723.4,-81.99759,104233.5,-741432.5,
25,1,25,00:01:31,100000,3,0,-,1305570,-76.15455,312428.1,-1267636,
28,1,28,00:01:43,56234.13,3,0,-,2190270,-66.85692,860839.4,-2014011,
31,1,31,00:01:53,31622.78,3,0,-,3371749,-53.09332,2024781,-2696099,
34,1,34,00:02:03,17782.79,3,0,-,4475499,-37.12449,3568432,-2701182,
37,1,37,00:02:13,10000,3,0,-,5046221,-24.3322,4597975,-2079176,
40,1,40,00:02:23,5623.413,3,0,-,5189892,-18.12564,4932352,-1614585,
43,1,43,00:02:33,3162.278,3,0,-,5238560,-19.94004,4924508,-1786540,
46,1,46,00:02:43,1778.279,3,0,-,5664111,-28.45833,4979682,-2699059,
49,1,49,00:02:53,1000,3,0,-,6903302,-40.42148,5255452,-4476137,
52,1,52,00:03:04,562.3413,3,0,-,9660623,-50.6871,6120538,-7474400,
55,1,55,00:03:14,316.2278,3,0,-,1.448037E+07,-56.162,8063347,-1.202761E+07,
58,1,58,00:03:25,177.8279,3,0,-,2.149994E+07,-57.46177,1.156401E+07,-1.812515E+07,
61,1,61,00:03:36,100,3,0,-,3.066027E+07,-58.62997,1.596061E+07,-2.617845E+07,
64,2,3,00:03:50,46.41589,3,0,-,4.954398E+07,-64.3857,2.14184E+07,-4.467503E+07,
67,2,6,00:04:02,14.67799,3,0,-,1.246577E+08,-76.00347,3.015013E+07,-1.209566E+08,
70,2,9,00:04:24,4.641589,3,0,-,3.63151E+08,-80.17202,6.19866E+07,-3.578216E+08,
73,2,12,00:05:05,1.467799,3,0,-,1.061392E+09,-77.07266,2.374498E+08,-1.034491E+09,
76,3,2,00:06:24,0.4641589,3,0,-,2.810136E+09,-67.24035,1.087148E+09,-2.591327E+09,
79,3,5,00:13:34,0.04641589,3,0,-,9.411227E+09,-35.33865,7.677187E+09,-5.443527E+09,
82,4,1,00:36:30,10000000,3,0,-,4533.517,-100.0671,-792.4676,-4463.717,
85,4,4,00:36:44,5623413,3,0,-,13794.39,-85.54775,1070.838,-13752.76,
88,4,7,00:36:54,3162278,3,0,-,32002.29,-87.18221,1573.239,-31963.6,
91,4,10,00:37:03,1778280,3,0,-,71531.88,-90.59753,-745.9984,-71527.98,
94,4,13,00:37:13,1000000,3,0,-,134691.8,-87.96422,4784.785,-134606.8,
97,4,16,00:37:24,562341.3,3,0,-,240166,-86.84194,13230.97,-239801.3,
100,4,19,00:37:34,316227.8,3,0,-,424644.8,-84.96487,37269.79,-423006.2,
103,4,22,00:37:43,177828,3,0,-,747548.1,-81.64363,108641.1,-739611.5,
106,4,25,00:37:53,100000,3,0,-,1301283,-75.52979,325160.6,-1260003,
109,4,28,00:38:05,56234.13,3,0,-,2171149,-65.84383,888489.6,-1981029,
112,4,31,00:38:15,31622.78,3,0,-,3304842,-51.6771,2049309,-2592743,
115,4,34,00:38:25,17782.79,3,0,-,4318723,-35.77738,3503757,-2524887,
118,4,37,00:38:35,10000,3,0,-,4813822,-23.41465,4417419,-1912928,
121,4,40,00:38:45,5623.413,3,0,-,4926896,-17.81615,4690618,-1507451,
124,4,43,00:38:55,3162.278,3,0,-,4986023,-20.15889,4680582,-1718306,
127,4,46,00:39:05,1778.279,3,0,-,5421373,-29.42072,4722212,-2663080,
130,4,49,00:39:15,1000,3,0,-,6687656,-41.30495,5023815,-4414298,
133,4,52,00:39:26,562.3413,3,0,-,9416323,-51.24658,5894337,-7343292,
136,4,55,00:39:36,316.2278,3,0,-,1.41E+07,-55.93074,7898748,-1.167989E+07,
139,4,58,00:39:48,177.8279,3,0,-,2.07177E+07,-57.12081,1.124701E+07,-1.739908E+07,
142,4,61,00:39:58,100,3,0,-,2.936407E+07,-58.79408,1.521398E+07,-2.51154E+07,
145,5,3,00:40:12,46.41589,3,0,-,4.787593E+07,-65.32601,1.998603E+07,-4.350475E+07,
148,5,6,00:40:24,14.67799,3,0,-,1.229111E+08,-76.56548,2.855645E+07,-1.195477E+08,
151,5,9,00:40:44,4.641589,3,0,-,3.585604E+08,-79.75256,6.378786E+07,-3.528409E+08,
154,5,12,00:41:23,1.467799,3,0,-,1.035466E+09,-75.47396,2.597159E+08,-1.002366E+09,
157,6,2,00:42:39,0.4641589,3,0,-,2.652935E+09,-63.43001,1.186634E+09,-2.372754E+09,
160,6,5,00:49:48,0.04641589,3,0,-,7.41111E+09,-33.05951,6.211285E+09,-4.042832E+09,
163,7,1,01:22:31,10000000,3,0,-,4531.071,-100.1425,-797.9067,-4460.263,
166,7,4,01:22:45,5623413,3,0,-,13746.93,-85.61994,1049.885,-13706.78,
169,7,7,01:22:55,3162278,3,0,-,32006.13,-87.18647,1571.052,-31967.54,
172,7,10,01:23:05,1778280,3,0,-,71494.91,-90.56775,-708.4471,-71491.41,
175,7,13,01:23:15,1000000,3,0,-,134747,-87.84301,5071.611,-134651.6,
178,7,16,01:23:26,562341.3,3,0,-,240039.3,-86.63961,14070.29,-239626.6,
181,7,19,01:23:35,316227.8,3,0,-,424188.3,-84.64886,39559.6,-422339.6,
184,7,22,01:23:45,177828,3,0,-,747315.9,-81.04297,116352.6,-738202.7,
187,7,25,01:23:55,100000,3,0,-,1294105,-74.64311,342719.1,-1247899,
190,7,28,01:24:07,56234.13,3,0,-,2147823,-64.45088,926323.6,-1937800,
193,7,31,01:24:16,31622.78,3,0,-,3218923,-49.93613,2071832,-2463530,
196,7,34,01:24:26,17782.79,3,0,-,4133674,-34.17813,3419769,-2322164,
199,7,37,01:24:36,10000,3,0,-,4549188,-22.40244,4205860,-1733740,
202,7,40,01:24:46,5623.413,3,0,-,4641217,-17.63341,4423146,-1405944,
205,7,43,01:24:56,3162.278,3,0,-,4689337,-20.58194,4390018,-1648520,
208,7,46,01:25:06,1778.279,3,0,-,5182320,-30.23898,4477174,-2609857,
211,7,49,01:25:17,1000,3,0,-,6477662,-42.05116,4809970,-4338698,
214,7,52,01:25:27,562.3413,3,0,-,9179734,-51.17839,5754755,-7151945,
217,7,55,01:25:37,316.2278,3,0,-,1.369641E+07,-55.59884,7738249,-1.130093E+07,
220,7,58,01:25:49,177.8279,3,0,-,1.993157E+07,-56.82899,1.090536E+07,-1.668354E+07,
223,7,61,01:25:59,100,3,0,-,2.816614E+07,-59.02641,1.449551E+07,-2.414978E+07,
226,8,3,01:26:13,46.41589,3,0,-,4.643427E+07,-66.2075,1.873278E+07,-4.248793E+07,
229,8,6,01:26:25,14.67799,3,0,-,1.212547E+08,-76.93708,2.740615E+07,-1.18117E+08,
232,8,9,01:26:46,4.641589,3,0,-,3.535902E+08,-79.22784,6.608751E+07,-3.473593E+08,
235,8,12,01:27:25,1.467799,3,0,-,1.009467E+09,-73.88165,2.80251E+08,-9.697854E+08,
238,9,2,01:28:43,0.4641589,3,0,-,2.482802E+09,-59.99521,1.241581E+09,-2.150066E+09,
241,9,5,01:35:56,0.04641589,3,0,-,6.192641E+09,-29.79646,5.37395E+09,-3.077248E+09,
244,10,1,01:58:56,10000000,3,0,-,4548.514,-99.17514,-725.2747,-4490.318,
247,10,4,01:59:10,5623413,3,0,-,13737.21,-84.80348,1244.211,-13680.75,
250,10,7,01:59:20,3162278,3,0,-,31868.08,-86.54851,1918.58,-31810.28,
253,10,10,01:59:29,1778280,3,0,-,71095.23,-90.13849,-171.8676,-71095.02,
256,10,13,01:59:39,1000000,3,0,-,134197.1,-87.70727,5368.605,-134089.7,
259,10,16,01:59:50,562341.3,3,0,-,239197.9,-86.31771,15362.28,-238704.1,
262,10,19,02:00:00,316227.8,3,0,-,423228.8,-84.13562,43243.18,-421013.8,
265,10,22,02:00:10,177828,3,0,-,743186.6,-80.09863,127793,-732116.9,
268,10,25,02:00:19,100000,3,0,-,1282211,-73.0019,374842,-1226197,
271,10,28,02:00:32,56234.13,3,0,-,2094713,-61.95081,984996.1,-1848677,
274,10,31,02:00:41,31622.78,3,0,-,3063876,-46.87704,2094363,-2236287,
277,10,34,02:00:51,17782.79,3,0,-,3816305,-31.43163,3256312,-1990130,
280,10,37,02:01:02,10000,3,0,-,4113358,-20.83613,3844351,-1463106,
283,10,40,02:01:12,5623.413,3,0,-,4157195,-17.36907,3967634,-1241029,
286,10,43,02:01:22,3162.278,3,0,-,4263273,-21.753,3959686,-1579995,
289,10,46,02:01:32,1778.279,3,0,-,4742299,-31.92859,4024827,-2508020,
292,10,49,02:01:42,1000,3,0,-,6103521,-43.32239,4440341,-4187642,
295,10,52,02:01:53,562.3413,3,0,-,8735129,-51.62119,5423276,-6847668,
298,10,55,02:02:03,316.2278,3,0,-,1.286022E+07,-54.89311,7395962,-1.052069E+07,
301,10,58,02:02:15,177.8279,3,0,-,1.839175E+07,-56.49339,1.015286E+07,-1.533545E+07,
304,10,61,02:02:25,100,3,0,-,2.594355E+07,-59.83797,1.303527E+07,-2.2431E+07,
307,11,3,02:02:39,46.41589,3,0,-,4.388577E+07,-67.78159,1.65949E+07,-4.06272E+07,
310,11,6,02:02:51,14.67799,3,0,-,1.179586E+08,-77.13137,2.627135E+07,-1.149958E+08,
313,11,9,02:03:12,4.641589,3,0,-,3.413884E+08,-77.33064,7.487498E+07,-3.330763E+08,
316,11,12,02:03:51,1.467799,3,0,-,9.423388E+08,-69.20388,3.345716E+08,-8.80945E+08,
319,12,2,02:05:08,0.4641589,3,0,-,2.129983E+09,-52.88316,1.285323E+09,-1.698463E+09,
322,12,5,02:13:03,0.04641589,3,0,-,5.67786E+09,-29.13947,4.959254E+09,-2.764761E+09,
323,12,6,02:22:25,0.02154435,3,0,-,5.517069E+09,-35.40815,4.496662E+09,-3.196573E+09,